Wavelength	67481<10	sd	67481 10-20	sd	67481 20-45	sd	67481 <45	sd
300.00	0.18101	0.055176	0.15129	0.055328	0.11976	0.056376	0.15933	0.055228
305.00	0.17930	0.036041	0.14862	0.035945	0.11992	0.036233	0.15678	0.044818
310.00	0.18104	0.025964	0.15015	0.026532	0.12022	0.026376	0.15980	0.026530
315.00	0.18143	0.020472	0.15015	0.019734	0.12122	0.020367	0.16038	0.019974
320.00	0.18566	0.015900	0.15228	0.015906	0.12244	0.015772	0.16354	0.015867
325.00	0.18664	0.012665	0.15519	0.012798	0.12381	0.013118	0.16586	0.012753
330.00	0.19123	0.010721	0.15685	0.010504	0.12567	0.010651	0.16757	0.010555
335.00	0.19468	0.0089550	0.16043	0.0088000	0.12786	0.0090510	0.17116	0.0088290
340.00	0.19892	0.0075890	0.16416	0.0074200	0.13011	0.0079460	0.17446	0.0075480
345.00	0.20237	0.0062190	0.16753	0.0063030	0.13269	0.0071210	0.17807	0.0064560
350.00	0.20675	0.0055720	0.17094	0.0052040	0.13515	0.0063540	0.18092	0.0055340
355.00	0.21118	0.0050250	0.17493	0.0047560	0.13799	0.0058880	0.18519	0.0048570
360.00	0.21493	0.0043980	0.17870	0.0042550	0.14085	0.0052500	0.18945	0.0042840
365.00	0.21917	0.0040470	0.18172	0.0038110	0.14340	0.0047770	0.19296	0.0039380
370.00	0.22267	0.0038790	0.18534	0.0035720	0.14581	0.0045120	0.19637	0.0035470
375.00	0.22669	0.0034310	0.18844	0.0032680	0.14834	0.0045690	0.19974	0.0035340
380.00	0.23024	0.0034790	0.19199	0.0031570	0.15073	0.0045090	0.20323	0.0035940
385.00	0.23374	0.0035460	0.19500	0.0032010	0.15278	0.0047160	0.20710	0.0034100
390.00	0.23707	0.0036830	0.19768	0.0033510	0.15451	0.0052820	0.21082	0.0037020
395.00	0.24050	0.0041880	0.20116	0.0039180	0.15649	0.0056350	0.21490	0.0042670
400.00	0.24533	0.0031010	0.20412	0.0026770	0.15835	0.0043520	0.21898	0.0030500
405.00	0.24838	0.0028800	0.20643	0.0025490	0.15994	0.0046200	0.22106	0.0030710
410.00	0.25171	0.0028030	0.20915	0.0024560	0.16156	0.0043770	0.22396	0.0029960
415.00	0.25499	0.0027990	0.21165	0.0024910	0.16326	0.0045450	0.22637	0.0030820
420.00	0.25782	0.0029240	0.21393	0.0024970	0.16466	0.0043450	0.22924	0.0030800
425.00	0.26130	0.0028590	0.21634	0.0024740	0.16618	0.0045240	0.23167	0.0029770
430.00	0.26434	0.0028640	0.21879	0.0025320	0.16782	0.0044260	0.23433	0.0029610
435.00	0.26748	0.0029690	0.22109	0.0025260	0.16924	0.0049960	0.23602	0.0031060
440.00	0.27011	0.0029960	0.22315	0.0025580	0.17054	0.0042850	0.23839	0.0030410
445.00	0.27310	0.0030590	0.22512	0.0025280	0.17186	0.0047770	0.23993	0.0033220
450.00	0.27543	0.0030820	0.22716	0.0026150	0.17309	0.0048700	0.24210	0.0033240
455.00	0.27869	0.0029940	0.22930	0.0025450	0.17383	0.0053840	0.24365	0.0035980
460.00	0.28089	0.0030100	0.23112	0.0025620	0.17469	0.0053160	0.24601	0.0036650
465.00	0.28402	0.0030710	0.23326	0.0026530	0.17594	0.0050270	0.24836	0.0031180
470.00	0.28601	0.0032130	0.23487	0.0027500	0.17704	0.0049080	0.25036	0.0031510
475.00	0.28871	0.0031400	0.23678	0.0027170	0.17820	0.0053410	0.25121	0.0033590
480.00	0.29089	0.0032320	0.23854	0.0028230	0.17949	0.0054410	0.25340	0.0034010
485.00	0.29357	0.0031700	0.24037	0.0027040	0.18074	0.0051100	0.25536	0.0030670
490.00	0.29591	0.0033580	0.24223	0.0027840	0.18164	0.0044550	0.25729	0.0031500
495.00	0.29846	0.0032450	0.24382	0.0027480	0.18260	0.0047220	0.25829	0.0034730
500.00	0.30042	0.0032980	0.24561	0.0027300	0.18359	0.0044430	0.26013	0.0035200
505.00	0.30272	0.0035260	0.24702	0.0029250	0.18474	0.0049870	0.26113	0.0033600
510.00	0.30506	0.0034470	0.24890	0.0028730	0.18587	0.0050550	0.26333	0.0032940
515.00	0.30784	0.0033290	0.25096	0.0027810	0.18690	0.0042450	0.26511	0.0030160
520.00	0.30988	0.0034190	0.25262	0.0029280	0.18783	0.0038350	0.26681	0.0031640
525.00	0.31260	0.0034750	0.25453	0.0029450	0.18871	0.0037990	0.26822	0.0033010
530.00	0.31441	0.0033530	0.25608	0.0029080	0.18956	0.0031400	0.26994	0.0032460
535.00	0.31688	0.0035450	0.25791	0.0029200	0.19055	0.0034490	0.27141	0.0033830
540.00	0.31925	0.0035110	0.25959	0.0030240	0.19162	0.0031760	0.27311	0.0033900
545.00	0.32122	0.0034600	0.26114	0.0030080	0.19261	0.0032020	0.27445	0.0034670
550.00	0.32309	0.0036420	0.26258	0.0031020	0.19356	0.0032140	0.27598	0.0036380
555.00	0.32493	0.0034920	0.26402	0.0030000	0.19471	0.0027460	0.27709	0.0032030
560.00	0.32663	0.0036660	0.26564	0.0029580	0.19588	0.0024600	0.27860	0.0032070
565.00	0.32910	0.0037720	0.26738	0.0031030	0.19697	0.0022660	0.27983	0.0035050
570.00	0.33077	0.0036870	0.26864	0.0031760	0.19827	0.0023400	0.28096	0.0035690
575.00	0.33311	0.0036640	0.27031	0.0031570	0.19939	0.0022870	0.28195	0.0035790
580.00	0.33485	0.0036560	0.27190	0.0032510	0.20028	0.0022610	0.28355	0.0037070
585.00	0.33694	0.0036320	0.27355	0.0030650	0.20096	0.0024150	0.28435	0.0036420
590.00	0.33863	0.0035670	0.27455	0.0030340	0.20176	0.0023450	0.28554	0.0036240
595.00	0.34050	0.0036570	0.27599	0.0031030	0.20238	0.0024770	0.28635	0.0038200
600.00	0.34251	0.0035760	0.27769	0.0032120	0.20316	0.0024580	0.28772	0.0038170
605.00	0.34443	0.0035900	0.27902	0.0031620	0.20395	0.0030340	0.28786	0.0039050
610.00	0.34618	0.0037620	0.28056	0.0032290	0.20491	0.0031380	0.29013	0.0039790
615.00	0.34780	0.0037920	0.28197	0.0033250	0.20568	0.0026720	0.29128	0.0038490
620.00	0.34969	0.0037050	0.28339	0.0032650	0.20666	0.0032700	0.29306	0.0038120
625.00	0.35147	0.0037170	0.28516	0.0032960	0.20776	0.0027210	0.29490	0.0036370
630.00	0.35278	0.0037910	0.28633	0.0032490	0.20886	0.0027370	0.29637	0.0036370
635.00	0.35498	0.0038330	0.28790	0.0034040	0.20995	0.0027750	0.29809	0.0034610
640.00	0.35622	0.0037100	0.28922	0.0033880	0.21131	0.0025250	0.29945	0.0035160
645.00	0.35829	0.0037890	0.29079	0.0032910	0.21273	0.0020740	0.30060	0.0032730
650.00	0.35995	0.0039440	0.29212	0.0034640	0.21412	0.0022390	0.30196	0.0035890
655.00	0.36160	0.0039520	0.29362	0.0034210	0.21550	0.0021070	0.30306	0.0037700
660.00	0.36325	0.0040210	0.29496	0.0035470	0.21668	0.0022300	0.30409	0.0037820
665.00	0.36510	0.0039530	0.29637	0.0034440	0.21771	0.0022550	0.30516	0.0039570
670.00	0.36668	0.0040710	0.29770	0.0036100	0.21849	0.0022330	0.30602	0.0039700
675.00	0.36847	0.0039710	0.29926	0.0034540	0.21917	0.0022820	0.30678	0.0043370
680.00	0.37005	0.0039430	0.30066	0.0034700	0.22005	0.0022820	0.30792	0.0042990
685.00	0.37196	0.0040760	0.30209	0.0035640	0.22097	0.0022760	0.30967	0.0037800
690.00	0.37350	0.0040860	0.30360	0.0035650	0.22188	0.0022650	0.31092	0.0037290
695.00	0.37517	0.0040790	0.30489	0.0035360	0.22304	0.0024320	0.31220	0.0042640
700.00	0.37696	0.0042230	0.30653	0.0036790	0.22425	0.0025370	0.31331	0.0043970
705.00	0.37839	0.0041020	0.30796	0.0036410	0.22519	0.0023520	0.31459	0.0040540
710.00	0.38020	0.0041730	0.30961	0.0037100	0.22612	0.0023280	0.31573	0.0038550
715.00	0.38160	0.0042800	0.31060	0.0037060	0.22715	0.0024350	0.31686	0.0045950
720.00	0.38306	0.0043030	0.31212	0.0037600	0.22798	0.0025160	0.31786	0.0046420
725.00	0.38393	0.0043560	0.31321	0.0037270	0.22884	0.0025130	0.31887	0.0041030
730.00	0.38542	0.0042410	0.31453	0.0037190	0.22985	0.0024910	0.32006	0.0041120
735.00	0.38702	0.0042490	0.31596	0.0037680	0.23077	0.0025100	0.32069	0.0041760
740.00	0.38853	0.0045080	0.31702	0.0037920	0.23169	0.0024920	0.32194	0.0043760
745.00	0.38989	0.0044250	0.31830	0.0038950	0.23259	0.0024920	0.32331	0.0045400
750.00	0.39115	0.0043580	0.31923	0.0038240	0.23363	0.0025810	0.32425	0.0044830
755.00	0.39248	0.0044290	0.32068	0.0038270	0.23484	0.0026420	0.32551	0.0041030
760.00	0.39419	0.0043110	0.32175	0.0038080	0.23618	0.0026530	0.32686	0.0039940
765.00	0.39582	0.0044920	0.32307	0.0038240	0.23746	0.0026770	0.32706	0.0042530
770.00	0.39695	0.0045420	0.32405	0.0037790	0.23870	0.0025880	0.32767	0.0042160
775.00	0.39806	0.0044760	0.32502	0.0039370	0.23956	0.0026830	0.32857	0.0046470
780.00	0.39943	0.0045260	0.32582	0.0039280	0.24018	0.0025330	0.32905	0.0046410
785.00	0.40065	0.0045600	0.32651	0.0037840	0.24069	0.0025000	0.32983	0.0047760
790.00	0.40176	0.0047850	0.32710	0.0040370	0.24118	0.0025810	0.33023	0.0051320
795.00	0.40273	0.0046650	0.32800	0.0039530	0.24156	0.0025710	0.33123	0.0050180
800.00	0.40326	0.0048890	0.32821	0.0042030	0.24160	0.0033350	0.33182	0.0058910
805.00	0.40468	0.0050360	0.32913	0.0043060	0.24237	0.0033020	0.33297	0.0057040
810.00	0.40583	0.0050140	0.32944	0.0044290	0.24248	0.0032230	0.33290	0.0056810
815.00	0.40690	0.0048300	0.33006	0.0043160	0.24262	0.0032760	0.33323	0.0055530
820.00	0.40760	0.0047950	0.33018	0.0041260	0.24250	0.0033290	0.33380	0.0058310
825.00	0.40838	0.0049440	0.33031	0.0043540	0.24235	0.0032460	0.33355	0.0053040
830.00	0.40928	0.0049270	0.32989	0.0041710	0.24209	0.0033520	0.33429	0.0052120
835.00	0.40965	0.0049620	0.32989	0.0044000	0.24186	0.0034410	0.33414	0.0053210
840.00	0.41025	0.0049650	0.33008	0.0040170	0.24147	0.0033160	0.33352	0.0049700
845.00	0.41061	0.0049450	0.32897	0.0042110	0.24107	0.0033760	0.33429	0.0050140
850.00	0.41109	0.0049830	0.32919	0.0040850	0.24076	0.0033100	0.33418	0.0050820
855.00	0.41116	0.0048240	0.32919	0.0039840	0.23991	0.0037390	0.33456	0.0055580
860.00	0.41183	0.0046870	0.32818	0.0038940	0.23957	0.0034330	0.33406	0.0057800
865.00	0.41231	0.0044970	0.32736	0.0039140	0.23919	0.0034350	0.33493	0.0060220
870.00	0.41261	0.0044800	0.32810	0.0038380	0.23883	0.0033490	0.33497	0.0064030
875.00	0.41272	0.0042770	0.32818	0.0032670	0.23850	0.0030510	0.33343	0.0056200
880.00	0.41300	0.0041940	0.32702	0.0035690	0.23808	0.0028820	0.33413	0.0049910
885.00	0.41297	0.0043500	0.32589	0.0032920	0.23761	0.0028420	0.33341	0.0048910
890.00	0.41286	0.0038030	0.32630	0.0032290	0.23729	0.0029800	0.33320	0.0044510
895.00	0.41377	0.0040690	0.32599	0.0034010	0.23704	0.0029870	0.33357	0.0054080
900.00	0.41433	0.0039530	0.32607	0.0032560	0.23676	0.0027810	0.33430	0.0059120
905.00	0.41460	0.0048250	0.32655	0.0038420	0.23662	0.0033020	0.33467	0.0060940
910.00	0.41521	0.0043790	0.32729	0.0038190	0.23661	0.0031620	0.33562	0.0048100
915.00	0.41571	0.0042280	0.32568	0.0035760	0.23679	0.0029940	0.33535	0.0054820
920.00	0.41580	0.0039690	0.32565	0.0032820	0.23677	0.0028980	0.33628	0.0061160
925.00	0.41641	0.0043060	0.32727	0.0035450	0.23706	0.0030210	0.33707	0.0062070
930.00	0.41746	0.0039820	0.32737	0.0034490	0.23754	0.0029360	0.33701	0.0053000
935.00	0.41830	0.0042410	0.32809	0.0035740	0.23802	0.0028930	0.33849	0.0047700
940.00	0.41949	0.0040050	0.32824	0.0033700	0.23834	0.0029660	0.33828	0.0048640
945.00	0.42004	0.0041270	0.32914	0.0032040	0.23884	0.0029720	0.33993	0.0046920
950.00	0.42147	0.0040110	0.33088	0.0031660	0.23923	0.0028250	0.34026	0.0043000
955.00	0.42289	0.0040260	0.33175	0.0032870	0.23964	0.0030820	0.34111	0.0053170
960.00	0.42444	0.0044090	0.33267	0.0034610	0.24030	0.0029040	0.34291	0.0057500
965.00	0.42433	0.0041210	0.33380	0.0033460	0.24130	0.0032420	0.34301	0.0061780
970.00	0.42661	0.0041320	0.33547	0.0032380	0.24248	0.0029530	0.34480	0.0058710
975.00	0.42755	0.0042260	0.33698	0.0035180	0.24375	0.0031010	0.34674	0.0050990
980.00	0.42937	0.0040690	0.33841	0.0034730	0.24492	0.0029150	0.34738	0.0047330
985.00	0.43039	0.0039250	0.33977	0.0032480	0.24612	0.0028660	0.34933	0.0051580
990.00	0.43233	0.0042610	0.34133	0.0032670	0.24711	0.0033750	0.35063	0.0051980
995.00	0.43242	0.0042230	0.34290	0.0033890	0.24809	0.0028620	0.35156	0.0057180
1000.0	0.43484	0.0040220	0.34443	0.0033220	0.24897	0.0030710	0.35245	0.0061710
1005.0	0.43584	0.0043540	0.34591	0.0037100	0.25009	0.0030900	0.35508	0.0051770
1010.0	0.43806	0.0041770	0.34778	0.0035170	0.25105	0.0031580	0.35518	0.0045850
1015.0	0.43852	0.0045350	0.34882	0.0037480	0.25209	0.0032850	0.35684	0.0057040
1020.0	0.43948	0.0043620	0.35057	0.0035940	0.25307	0.0034040	0.35750	0.0053370
1025.0	0.43999	0.0042340	0.35196	0.0035730	0.25422	0.0028250	0.35880	0.0054760
1030.0	0.44253	0.0042240	0.35369	0.0036000	0.25533	0.0034990	0.36010	0.0057570
1035.0	0.44360	0.0044510	0.35527	0.0035120	0.25640	0.0032550	0.36141	0.0055980
1040.0	0.44479	0.0044390	0.35694	0.0036050	0.25778	0.0028920	0.36228	0.0055640
1045.0	0.44611	0.0042090	0.35786	0.0035490	0.25852	0.0033160	0.36452	0.0051000
1050.0	0.44747	0.0043740	0.35964	0.0037140	0.25926	0.0032600	0.36535	0.0049550
1055.0	0.44827	0.0045830	0.36016	0.0036310	0.26006	0.0030240	0.36718	0.0049280
1060.0	0.44995	0.0041320	0.36173	0.0036190	0.26108	0.0028290	0.36808	0.0050140
1065.0	0.45136	0.0042940	0.36323	0.0035050	0.26155	0.0029840	0.36957	0.0055330
1070.0	0.45228	0.0044900	0.36561	0.0036540	0.26261	0.0034530	0.37002	0.0052400
1075.0	0.45295	0.0044570	0.36587	0.0037290	0.26337	0.0031690	0.37114	0.0061950
1080.0	0.45385	0.0042460	0.36806	0.0035610	0.26463	0.0031890	0.37259	0.0061740
1085.0	0.45500	0.0040450	0.36902	0.0033620	0.26555	0.0030080	0.37411	0.0053740
1090.0	0.45763	0.0045970	0.37052	0.0036040	0.26682	0.0028530	0.37524	0.0055550
1095.0	0.45777	0.0044110	0.37163	0.0036960	0.26780	0.0029880	0.37551	0.0047760
1100.0	0.45949	0.0044130	0.37347	0.0037980	0.26902	0.0030790	0.37727	0.0046600
1105.0	0.46091	0.0043770	0.37497	0.0040040	0.26959	0.0028740	0.37907	0.0053550
1110.0	0.46214	0.0044760	0.37648	0.0039860	0.27051	0.0029460	0.37932	0.0056120
1115.0	0.46279	0.0044650	0.37707	0.0040150	0.27108	0.0031260	0.38044	0.0062810
1120.0	0.46493	0.0040950	0.37873	0.0035030	0.27186	0.0031210	0.38059	0.0064450
1125.0	0.46575	0.0043190	0.37977	0.0035100	0.27251	0.0030570	0.38222	0.0046640
1130.0	0.46621	0.0043180	0.38104	0.0038420	0.27330	0.0028610	0.38320	0.0047160
1135.0	0.46691	0.0041080	0.38256	0.0037550	0.27396	0.0029900	0.38392	0.0055870
1140.0	0.46882	0.0042690	0.38323	0.0037380	0.27507	0.0031300	0.38581	0.0059440
1145.0	0.46956	0.0046520	0.38480	0.0039480	0.27579	0.0032460	0.38556	0.0057910
1150.0	0.47054	0.0047710	0.38528	0.0040650	0.27665	0.0031890	0.38670	0.0055290
1155.0	0.47171	0.0046220	0.38675	0.0040010	0.27722	0.0030960	0.38724	0.0052750
1160.0	0.47298	0.0044770	0.38785	0.0040990	0.27783	0.0031480	0.38785	0.0052190
1165.0	0.47330	0.0041690	0.38836	0.0035130	0.27839	0.0029800	0.38882	0.0055690
1170.0	0.47488	0.0043450	0.38947	0.0038510	0.27914	0.0031710	0.38976	0.0056020
1175.0	0.47495	0.0043760	0.39039	0.0038580	0.27968	0.0032490	0.39109	0.0057340
1180.0	0.47589	0.0043010	0.39180	0.0037910	0.28058	0.0034560	0.39102	0.0051750
1185.0	0.47697	0.0046450	0.39224	0.0040380	0.28087	0.0031480	0.39195	0.0049790
1190.0	0.47844	0.0042940	0.39290	0.0038430	0.28114	0.0028430	0.39320	0.0050050
1195.0	0.47919	0.0047020	0.39391	0.0041000	0.28168	0.0030060	0.39423	0.0056000
1200.0	0.48026	0.0042520	0.39481	0.0038760	0.28253	0.0030160	0.39587	0.0047380
1205.0	0.48041	0.0044690	0.39605	0.0038290	0.28326	0.0032190	0.39678	0.0058680
1210.0	0.48086	0.0045970	0.39598	0.0041660	0.28465	0.0030780	0.39770	0.0061900
1215.0	0.48178	0.0049250	0.39754	0.0039430	0.28576	0.0034320	0.39861	0.0058400
1220.0	0.48246	0.0046890	0.39813	0.0039640	0.28668	0.0031650	0.39923	0.0053000
1225.0	0.48318	0.0047130	0.40012	0.0043370	0.28709	0.0031100	0.39944	0.0050680
1230.0	0.48392	0.0047740	0.39986	0.0042050	0.28764	0.0030660	0.40095	0.0049010
1235.0	0.48478	0.0047890	0.40051	0.0043330	0.28803	0.0030850	0.40191	0.0054180
1240.0	0.48601	0.0046970	0.40154	0.0037890	0.28869	0.0033500	0.40302	0.0056260
1245.0	0.48683	0.0046440	0.40257	0.0040120	0.28914	0.0032430	0.40328	0.0061560
1250.0	0.48793	0.0043980	0.40312	0.0038160	0.28999	0.0030120	0.40422	0.0062610
1255.0	0.48883	0.0047220	0.40390	0.0041450	0.29081	0.0032130	0.40462	0.0057780
1260.0	0.48846	0.0049060	0.40482	0.0038880	0.29189	0.0030450	0.40619	0.0055640
1265.0	0.48954	0.0045790	0.40681	0.0040950	0.29250	0.0031780	0.40672	0.0060220
1270.0	0.49176	0.0046550	0.40747	0.0040030	0.29364	0.0034390	0.40666	0.0062670
1275.0	0.49154	0.0048570	0.40775	0.0039780	0.29460	0.0033430	0.40759	0.0055730
1280.0	0.49279	0.0048480	0.40877	0.0040620	0.29541	0.0031770	0.40864	0.0058360
1285.0	0.49341	0.0044920	0.40941	0.0041620	0.29608	0.0031340	0.40852	0.0053610
1290.0	0.49432	0.0044700	0.41031	0.0039550	0.29711	0.0033150	0.40860	0.0050040
1295.0	0.49459	0.0046130	0.41119	0.0042580	0.29783	0.0035810	0.40983	0.0060080
1300.0	0.49525	0.0046680	0.41175	0.0039250	0.29827	0.0031330	0.41021	0.0050720
1305.0	0.49710	0.0047140	0.41299	0.0040060	0.29890	0.0031230	0.41158	0.0050600
1310.0	0.49802	0.0048480	0.41370	0.0043420	0.29951	0.0033230	0.41229	0.0052970
1315.0	0.49902	0.0049830	0.41556	0.0043590	0.30042	0.0034110	0.41237	0.0060810
1320.0	0.49973	0.0050920	0.41604	0.0040860	0.30158	0.0034250	0.41313	0.0055510
1325.0	0.50073	0.0049520	0.41729	0.0039950	0.30285	0.0031050	0.41460	0.0059570
1330.0	0.50178	0.0051800	0.41788	0.0044410	0.30399	0.0036130	0.41529	0.0060600
1335.0	0.50246	0.0050970	0.41884	0.0040560	0.30541	0.0034650	0.41614	0.0052210
1340.0	0.50390	0.0046400	0.42058	0.0040320	0.30639	0.0033570	0.41667	0.0054870
1345.0	0.50435	0.0045620	0.42046	0.0038730	0.30724	0.0032870	0.41713	0.0056440
1350.0	0.50448	0.0047340	0.42121	0.0041620	0.30812	0.0033140	0.41840	0.0057140
1355.0	0.50543	0.0047030	0.42256	0.0042700	0.30895	0.0034780	0.41868	0.0062200
1360.0	0.50643	0.0053720	0.42337	0.0046270	0.30992	0.0040200	0.41965	0.0064070
1365.0	0.50781	0.0055740	0.42498	0.0046170	0.31086	0.0036630	0.42005	0.0061060
1370.0	0.50856	0.0047440	0.42546	0.0045590	0.31177	0.0030600	0.42112	0.0057710
1375.0	0.50971	0.0046460	0.42725	0.0043790	0.31245	0.0036490	0.42143	0.0056030
1380.0	0.51045	0.0048500	0.42681	0.0043050	0.31327	0.0036210	0.42273	0.0051670
1385.0	0.51138	0.0049030	0.42856	0.0040230	0.31404	0.0038930	0.42398	0.0058160
1390.0	0.51165	0.0048030	0.43016	0.0044660	0.31490	0.0035600	0.42553	0.0056130
1395.0	0.51256	0.0049160	0.43141	0.0045220	0.31559	0.0036070	0.42601	0.0065330
1400.0	0.51313	0.0052880	0.43086	0.0044570	0.31652	0.0039080	0.42723	0.0067920
1405.0	0.51381	0.0047030	0.43301	0.0038860	0.31782	0.0036300	0.42851	0.0063110
1410.0	0.51424	0.0054900	0.43296	0.0045940	0.31896	0.0038100	0.42921	0.0062760
1415.0	0.51530	0.0049420	0.43339	0.0044070	0.31978	0.0035910	0.42985	0.0056250
1420.0	0.51564	0.0048510	0.43418	0.0045600	0.32059	0.0039060	0.43124	0.0055740
1425.0	0.51756	0.0045020	0.43633	0.0042430	0.32161	0.0036190	0.43099	0.0058110
1430.0	0.51743	0.0049510	0.43709	0.0042230	0.32234	0.0037330	0.43219	0.0059770
1435.0	0.51908	0.0053070	0.43821	0.0048790	0.32308	0.0040810	0.43263	0.0069850
1440.0	0.51969	0.0055010	0.43926	0.0045930	0.32416	0.0045450	0.43400	0.0075210
1445.0	0.51996	0.0051230	0.43967	0.0044790	0.32536	0.0042640	0.43435	0.0066060
1450.0	0.52127	0.0047290	0.44064	0.0045160	0.32629	0.0043860	0.43517	0.0063010
1455.0	0.52235	0.0052580	0.44086	0.0050050	0.32721	0.0042140	0.43574	0.0051700
1460.0	0.52215	0.0048040	0.44209	0.0044130	0.32806	0.0037430	0.43741	0.0052390
1465.0	0.52297	0.0049610	0.44315	0.0046280	0.32908	0.0039990	0.43804	0.0058640
1470.0	0.52309	0.0050520	0.44398	0.0045830	0.32997	0.0035220	0.43905	0.0062350
1475.0	0.52517	0.0050750	0.44485	0.0048610	0.33066	0.0041970	0.43804	0.0071510
1480.0	0.52579	0.0050750	0.44557	0.0047600	0.33148	0.0043670	0.43911	0.0069600
1485.0	0.52597	0.0049340	0.44604	0.0044860	0.33241	0.0039380	0.44037	0.0064330
1490.0	0.52759	0.0047980	0.44649	0.0044300	0.33313	0.0037570	0.44119	0.0064620
1495.0	0.52720	0.0052210	0.44692	0.0047910	0.33369	0.0046250	0.44089	0.0055700
1500.0	0.52843	0.0050630	0.44835	0.0046740	0.33439	0.0040720	0.44287	0.0060950
1505.0	0.52930	0.0051700	0.44871	0.0046370	0.33490	0.0038000	0.44276	0.0061240
1510.0	0.53024	0.0048400	0.45039	0.0044100	0.33554	0.0038740	0.44336	0.0059260
1515.0	0.53064	0.0049910	0.45036	0.0045380	0.33621	0.0036950	0.44364	0.0069450
1520.0	0.53053	0.0051640	0.45074	0.0048480	0.33683	0.0040050	0.44383	0.0070860
1525.0	0.53140	0.0050110	0.45167	0.0043890	0.33735	0.0043880	0.44520	0.0063190
1530.0	0.53254	0.0049800	0.45260	0.0046660	0.33768	0.0041400	0.44592	0.0065010
1535.0	0.53317	0.0045300	0.45297	0.0042500	0.33825	0.0042390	0.44649	0.0061340
1540.0	0.53475	0.0048460	0.45428	0.0047820	0.33894	0.0037580	0.44735	0.0060480
1545.0	0.53464	0.0051020	0.45478	0.0049160	0.33964	0.0037850	0.44709	0.0062610
1550.0	0.53587	0.0050420	0.45554	0.0045940	0.34043	0.0039140	0.44788	0.0064160
1555.0	0.53494	0.0051850	0.45500	0.0048590	0.34123	0.0038940	0.44847	0.0056310
1560.0	0.53641	0.0049940	0.45632	0.0046260	0.34188	0.0042510	0.44875	0.0059520
1565.0	0.53708	0.0050850	0.45666	0.0048390	0.34206	0.0041270	0.44891	0.0068810
1570.0	0.53731	0.0055100	0.45772	0.0052420	0.34248	0.0042880	0.44933	0.0070520
1575.0	0.53745	0.0053240	0.45702	0.0050610	0.34285	0.0040710	0.45012	0.0061290
1580.0	0.53817	0.0051120	0.45854	0.0046760	0.34345	0.0037730	0.45028	0.0062030
1585.0	0.53839	0.0052270	0.45800	0.0047170	0.34363	0.0039960	0.45132	0.0060170
1590.0	0.53942	0.0047520	0.45921	0.0047070	0.34397	0.0039290	0.45136	0.0059870
1595.0	0.53999	0.0046660	0.46022	0.0043880	0.34437	0.0041660	0.45248	0.0062010
1600.0	0.54035	0.0050290	0.45967	0.0048750	0.34480	0.0040020	0.45301	0.0066600
1605.0	0.54177	0.0050160	0.46130	0.0043070	0.34503	0.0041660	0.45294	0.0064440
1610.0	0.54192	0.0051300	0.46119	0.0045960	0.34528	0.0044630	0.45349	0.0066730
1615.0	0.54184	0.0049880	0.46246	0.0045350	0.34578	0.0036370	0.45366	0.0057670
1620.0	0.54336	0.0051870	0.46213	0.0047680	0.34602	0.0038900	0.45410	0.0059640
1625.0	0.54406	0.0052970	0.46176	0.0049320	0.34613	0.0037660	0.45462	0.0065790
1630.0	0.54390	0.0052850	0.46259	0.0047860	0.34634	0.0037350	0.45412	0.0069930
1635.0	0.54484	0.0050000	0.46243	0.0042300	0.34666	0.0040160	0.45438	0.0066880
1640.0	0.54542	0.0051320	0.46330	0.0044260	0.34719	0.0041360	0.45502	0.0068210
1645.0	0.54486	0.0051710	0.46413	0.0047410	0.34727	0.0039370	0.45500	0.0063490
1650.0	0.54599	0.0053780	0.46375	0.0047480	0.34762	0.0047250	0.45561	0.0063140
1655.0	0.54588	0.0054020	0.46442	0.0052010	0.34786	0.0040720	0.45600	0.0059070
1660.0	0.54604	0.0051960	0.46470	0.0051420	0.34834	0.0038290	0.45643	0.0057530
1665.0	0.54618	0.0054940	0.46643	0.0047920	0.34841	0.0046700	0.45684	0.0062710
1670.0	0.54637	0.0054430	0.46673	0.0051300	0.34889	0.0041430	0.45705	0.0066990
1675.0	0.54651	0.0052860	0.46627	0.0049160	0.34898	0.0039680	0.45719	0.0060310
1680.0	0.54672	0.0054220	0.46655	0.0051500	0.34933	0.0042120	0.45770	0.0065700
1685.0	0.54705	0.0047900	0.46738	0.0044020	0.34947	0.0037330	0.45784	0.0061620
1690.0	0.54732	0.0052540	0.46758	0.0047650	0.34961	0.0041910	0.45783	0.0060690
1695.0	0.54761	0.0050190	0.46813	0.0047040	0.35003	0.0038180	0.45813	0.0068020
1700.0	0.54781	0.0052800	0.46788	0.0045760	0.34922	0.0046540	0.45854	0.0059220
1705.0	0.54953	0.0051120	0.46874	0.0045090	0.35025	0.0045680	0.45828	0.0058790
1710.0	0.55003	0.0053250	0.46870	0.0047420	0.35045	0.0049660	0.45904	0.0062420
1715.0	0.55058	0.0051850	0.46960	0.0046530	0.35190	0.0045260	0.45943	0.0054730
1720.0	0.55092	0.0052950	0.47031	0.0047250	0.35218	0.0043350	0.45949	0.0054690
1725.0	0.55073	0.0051130	0.46992	0.0046430	0.35249	0.0040800	0.45975	0.0062050
1730.0	0.55101	0.0051860	0.47014	0.0045820	0.35273	0.0043680	0.45983	0.0060230
1735.0	0.55168	0.0051450	0.47018	0.0044990	0.35338	0.0042410	0.46047	0.0058130
1740.0	0.55256	0.0050600	0.47110	0.0045840	0.35341	0.0040460	0.46054	0.0063130
1745.0	0.55212	0.0050310	0.47056	0.0046400	0.35380	0.0041570	0.46117	0.0063490
1750.0	0.55293	0.0050540	0.47109	0.0047180	0.35384	0.0042340	0.46087	0.0062820
1755.0	0.55302	0.0053170	0.47208	0.0046070	0.35541	0.0044610	0.46173	0.0051410
1760.0	0.55363	0.0051600	0.47176	0.0044420	0.35549	0.0041110	0.46132	0.0048730
1765.0	0.55378	0.0052300	0.47219	0.0044660	0.35489	0.0041380	0.46155	0.0060830
1770.0	0.55383	0.0053530	0.47208	0.0043110	0.35483	0.0041220	0.46111	0.0062820
1775.0	0.55409	0.0052370	0.47270	0.0045740	0.35484	0.0040840	0.46215	0.0054790
1780.0	0.55519	0.0054240	0.47280	0.0044760	0.35518	0.0039280	0.46112	0.0053450
1785.0	0.55537	0.0053920	0.47311	0.0047960	0.35508	0.0039120	0.46213	0.0066770
1790.0	0.55574	0.0050210	0.47387	0.0041940	0.35526	0.0036300	0.46220	0.0061700
1795.0	0.55534	0.0053060	0.47393	0.0044300	0.35653	0.0035660	0.46235	0.0057470
1800.0	0.55625	0.0052480	0.47372	0.0043140	0.35759	0.0034780	0.46336	0.0054220
1805.0	0.55564	0.0051940	0.47382	0.0044660	0.35651	0.0034520	0.46356	0.0064520
1810.0	0.55598	0.0051160	0.47424	0.0041860	0.35627	0.0035230	0.46353	0.0061650
1815.0	0.55649	0.0050730	0.47467	0.0043610	0.35658	0.0035570	0.46465	0.0055930
1820.0	0.55642	0.0049360	0.47442	0.0042580	0.35684	0.0034110	0.46490	0.0055630
1825.0	0.55772	0.0054860	0.47471	0.0047380	0.35690	0.0038200	0.46562	0.0066430
1830.0	0.55764	0.0053820	0.47451	0.0045200	0.35701	0.0035440	0.46615	0.0062640
1835.0	0.55797	0.0055270	0.47556	0.0046210	0.35742	0.0039320	0.46579	0.0062570
1840.0	0.55809	0.0052890	0.47467	0.0043930	0.35780	0.0037990	0.46593	0.0059360
1845.0	0.55841	0.0052020	0.47578	0.0044110	0.35720	0.0034390	0.46567	0.0065540
1850.0	0.55913	0.0054530	0.47560	0.0045710	0.35726	0.0041040	0.46560	0.0060760
1855.0	0.56008	0.0053090	0.47630	0.0044220	0.35724	0.0037830	0.46574	0.0069490
1860.0	0.55972	0.0053860	0.47624	0.0045720	0.35753	0.0037950	0.46536	0.0064980
1865.0	0.56065	0.0057000	0.47770	0.0046640	0.35771	0.0039850	0.46627	0.0064840
1870.0	0.56176	0.0056180	0.47662	0.0049570	0.35771	0.0040050	0.46540	0.0065530
1875.0	0.56212	0.0053770	0.47790	0.0044260	0.35787	0.0041850	0.46577	0.0069830
1880.0	0.56206	0.0052330	0.47879	0.0044160	0.35805	0.0036930	0.46609	0.0064070
1885.0	0.56307	0.0054300	0.47961	0.0048780	0.35809	0.0038440	0.46435	0.0061520
1890.0	0.56226	0.0053750	0.47824	0.0046770	0.35837	0.0038890	0.46565	0.0060500
1895.0	0.56190	0.0053570	0.47889	0.0046310	0.35898	0.0039670	0.46750	0.0070940
1900.0	0.56242	0.0051520	0.47901	0.0045730	0.35892	0.0036530	0.46740	0.0065710
1905.0	0.56297	0.0055780	0.47991	0.0047500	0.35906	0.0037630	0.46786	0.0054780
1910.0	0.56293	0.0054510	0.48017	0.0047250	0.35924	0.0040470	0.46868	0.0059280
1915.0	0.56420	0.0057730	0.48061	0.0048490	0.35954	0.0042670	0.46804	0.0068680
1920.0	0.56366	0.0053230	0.48109	0.0044550	0.36038	0.0037730	0.46973	0.0065220
1925.0	0.56524	0.0054100	0.48174	0.0046680	0.35978	0.0037920	0.46921	0.0067000
1930.0	0.56508	0.0053360	0.48237	0.0044360	0.36143	0.0041830	0.46941	0.0062280
1935.0	0.56529	0.0052120	0.48333	0.0042300	0.36131	0.0040750	0.46955	0.0072930
1940.0	0.56630	0.0053010	0.48335	0.0046960	0.36112	0.0041280	0.47014	0.0075380
1945.0	0.56607	0.0055690	0.48295	0.0049620	0.36160	0.0046790	0.47038	0.0072730
1950.0	0.56675	0.0056370	0.48355	0.0052790	0.36080	0.0044670	0.47113	0.0069110
1955.0	0.56624	0.0056380	0.48355	0.0047060	0.36107	0.0043710	0.47164	0.0060970
1960.0	0.56694	0.0056690	0.48434	0.0050210	0.36213	0.0041130	0.47079	0.0062070
1965.0	0.56752	0.0056440	0.48482	0.0049000	0.36199	0.0044200	0.47172	0.0073510
1970.0	0.56761	0.0054840	0.48499	0.0046330	0.36221	0.0041920	0.47261	0.0075200
1975.0	0.56810	0.0054190	0.48642	0.0048950	0.36248	0.0042270	0.47276	0.0073470
1980.0	0.56921	0.0056030	0.48700	0.0051340	0.36331	0.0037930	0.47318	0.0066420
1985.0	0.56942	0.0051630	0.48747	0.0046910	0.36382	0.0039800	0.47317	0.0069540
1990.0	0.56917	0.0055590	0.48667	0.0048070	0.36444	0.0041810	0.47551	0.0069550
1995.0	0.56892	0.0052830	0.48742	0.0046480	0.36426	0.0038240	0.47531	0.0067920
2000.0	0.57011	0.0053950	0.48863	0.0049450	0.36513	0.0041350	0.47568	0.0071640
2005.0	0.57072	0.0053230	0.48836	0.0048360	0.36569	0.0042880	0.47429	0.0069720
2010.0	0.57049	0.0054270	0.48892	0.0046460	0.36685	0.0042710	0.47594	0.0065480
2015.0	0.57195	0.0055320	0.49049	0.0050430	0.36620	0.0042980	0.47679	0.0077000
2020.0	0.57193	0.0057680	0.49060	0.0050400	0.36633	0.0042420	0.47755	0.0069210
2025.0	0.57208	0.0058890	0.49121	0.0051180	0.36737	0.0042610	0.47787	0.0064080
2030.0	0.57167	0.0052240	0.49153	0.0046000	0.36882	0.0045300	0.47840	0.0068090
2035.0	0.57274	0.0059430	0.49168	0.0052710	0.36857	0.0051630	0.47886	0.0076790
2040.0	0.57161	0.0054740	0.49194	0.0048480	0.36890	0.0051000	0.47877	0.0073980
2045.0	0.57302	0.0059380	0.49274	0.0052840	0.36993	0.0045290	0.47916	0.0073120
2050.0	0.57294	0.0054250	0.49292	0.0047630	0.37007	0.0047860	0.47982	0.0069880
2055.0	0.57378	0.0055610	0.49415	0.0046800	0.36992	0.0047980	0.48164	0.0077980
2060.0	0.57365	0.0051650	0.49547	0.0045800	0.37114	0.0048180	0.48199	0.0079690
2065.0	0.57439	0.0054640	0.49420	0.0049030	0.37164	0.0046540	0.48207	0.0061680
2070.0	0.57534	0.0055420	0.49550	0.0047620	0.37222	0.0050180	0.48362	0.0069110
2075.0	0.57549	0.0054360	0.49584	0.0049700	0.37277	0.0049740	0.48324	0.0079140
2080.0	0.57586	0.0057690	0.49688	0.0050120	0.37397	0.0046070	0.48314	0.0078860
2085.0	0.57609	0.0060820	0.49677	0.0054110	0.37428	0.0058550	0.48300	0.0072500
2090.0	0.57613	0.0059540	0.49812	0.0056980	0.37517	0.0056820	0.48563	0.0071860
2095.0	0.57758	0.0065300	0.49887	0.0056970	0.37569	0.0058740	0.48564	0.0083540
2100.0	0.57662	0.0056010	0.49889	0.0052100	0.37622	0.0055030	0.48458	0.0082360
2105.0	0.57783	0.0051090	0.49972	0.0045570	0.37705	0.0053090	0.48551	0.0080120
2110.0	0.57929	0.0051790	0.50109	0.0047160	0.37732	0.0050990	0.48637	0.0076580
2115.0	0.57919	0.0055830	0.50181	0.0051000	0.37834	0.0056110	0.48674	0.0078610
2120.0	0.58006	0.0053050	0.50273	0.0048280	0.37979	0.0048330	0.48777	0.0077620
2125.0	0.58126	0.0054300	0.50328	0.0052930	0.37982	0.0052320	0.48842	0.0070590
2130.0	0.58114	0.0055390	0.50329	0.0051140	0.38063	0.0054940	0.48978	0.0068090
2135.0	0.58133	0.0057710	0.50464	0.0055080	0.38111	0.0053330	0.48978	0.0088650
2140.0	0.58145	0.0053810	0.50553	0.0051930	0.38214	0.0049620	0.49109	0.0089190
2145.0	0.58236	0.0055420	0.50552	0.0051150	0.38209	0.0047320	0.49189	0.0072370
2150.0	0.58264	0.0056150	0.50617	0.0055480	0.38249	0.0046010	0.49249	0.0066900
2155.0	0.58365	0.0055680	0.50769	0.0052530	0.38370	0.0048210	0.49236	0.0076410
2160.0	0.58407	0.0053940	0.50815	0.0052960	0.38425	0.0045850	0.49330	0.0073190
2165.0	0.58471	0.0057090	0.50869	0.0054880	0.38562	0.0045840	0.49418	0.0064750
2170.0	0.58478	0.0054830	0.50985	0.0054750	0.38665	0.0046270	0.49448	0.0062660
2175.0	0.58548	0.0054950	0.51069	0.0053780	0.38652	0.0050400	0.49495	0.0074250
2180.0	0.58598	0.0054420	0.51134	0.0052530	0.38767	0.0049040	0.49640	0.0072640
2185.0	0.58725	0.0054760	0.51290	0.0053510	0.38921	0.0047760	0.49782	0.0060200
2190.0	0.58740	0.0054260	0.51303	0.0052760	0.39012	0.0046370	0.49790	0.0061400
2195.0	0.58780	0.0052940	0.51457	0.0052600	0.39082	0.0051720	0.49862	0.0072710
2200.0	0.58804	0.0055050	0.51481	0.0053150	0.39077	0.0052700	0.49904	0.0072320
2205.0	0.58895	0.0054810	0.51543	0.0052290	0.39160	0.0043690	0.49920	0.0050150
2210.0	0.58967	0.0055530	0.51594	0.0053810	0.39349	0.0040270	0.50012	0.0053780
2215.0	0.58961	0.0055380	0.51694	0.0054700	0.39294	0.0049840	0.50033	0.0070040
2220.0	0.59087	0.0055690	0.51779	0.0054990	0.39390	0.0051430	0.50104	0.0068110
2225.0	0.59185	0.0052530	0.51871	0.0053900	0.39417	0.0050150	0.50138	0.0059260
2230.0	0.59212	0.0055180	0.51978	0.0053090	0.39449	0.0050310	0.50192	0.0058420
2235.0	0.59284	0.0053770	0.52031	0.0054480	0.39707	0.0052320	0.50304	0.0067300
2240.0	0.59341	0.0054600	0.52117	0.0055390	0.39659	0.0055800	0.50319	0.0067900
2245.0	0.59312	0.0056120	0.52201	0.0056030	0.39792	0.0057980	0.50361	0.0063040
2250.0	0.59322	0.0053180	0.52237	0.0051610	0.39811	0.0051200	0.50412	0.0059800
2255.0	0.59387	0.0057930	0.52367	0.0059510	0.39841	0.0060580	0.50504	0.0063690
2260.0	0.59469	0.0053660	0.52392	0.0055190	0.39946	0.0056430	0.50561	0.0062050
2265.0	0.59550	0.0054950	0.52402	0.0053700	0.40002	0.0058360	0.50556	0.0067330
2270.0	0.59566	0.0056910	0.52540	0.0057290	0.40089	0.0059850	0.50648	0.0066790
2275.0	0.59568	0.0058040	0.52558	0.0056540	0.40059	0.0062840	0.50685	0.0062450
2280.0	0.59644	0.0057880	0.52664	0.0058690	0.40183	0.0062390	0.50770	0.0061070
2285.0	0.59665	0.0055860	0.52738	0.0057220	0.40269	0.0065820	0.50798	0.0069420
2290.0	0.59707	0.0054630	0.52780	0.0054700	0.40305	0.0072450	0.50847	0.0070180
2295.0	0.59830	0.0056850	0.52827	0.0055820	0.40389	0.0068930	0.50920	0.0060770
2300.0	0.59831	0.0057550	0.52910	0.0059020	0.40396	0.0071880	0.50963	0.0061360
2305.0	0.59868	0.0055750	0.53023	0.0058360	0.40380	0.0076500	0.51019	0.0077820
2310.0	0.59890	0.0055230	0.53023	0.0057880	0.40479	0.0072850	0.51066	0.0073980
2315.0	0.59989	0.0054420	0.53180	0.0055790	0.40525	0.0072850	0.51160	0.0061610
2320.0	0.60034	0.0057550	0.53178	0.0058850	0.40587	0.0071280	0.51133	0.0061800
2325.0	0.60094	0.0055510	0.53253	0.0057590	0.40634	0.0072480	0.51251	0.0067610
2330.0	0.60032	0.0054060	0.53285	0.0053290	0.40713	0.0073950	0.51248	0.0070960
2335.0	0.60136	0.0055290	0.53401	0.0054770	0.40690	0.0071070	0.51374	0.0068830
2340.0	0.60266	0.0054300	0.53545	0.0054990	0.40861	0.0078820	0.51396	0.0072770
2345.0	0.60231	0.0053100	0.53468	0.0059190	0.40841	0.0076480	0.51390	0.0064170
2350.0	0.60253	0.0057480	0.53473	0.0058240	0.40868	0.0074580	0.51356	0.0069050
2355.0	0.60217	0.0056150	0.53556	0.0058620	0.40846	0.0078840	0.51335	0.0073080
2360.0	0.60243	0.0057420	0.53594	0.0061350	0.40932	0.0079590	0.51437	0.0070910
2365.0	0.60283	0.0056780	0.53666	0.0055730	0.41005	0.0075830	0.51411	0.0071390
2370.0	0.60343	0.0055140	0.53756	0.0056510	0.41160	0.0073370	0.51495	0.0068220
2375.0	0.60409	0.0055290	0.53712	0.0057360	0.41029	0.0076630	0.51615	0.0065480
2380.0	0.60372	0.0057170	0.53778	0.0059130	0.41149	0.0075550	0.51655	0.0062580
2385.0	0.60497	0.0057380	0.53895	0.0059750	0.41282	0.0078650	0.51665	0.0069380
2390.0	0.60517	0.0051950	0.54052	0.0056150	0.41387	0.0076400	0.51699	0.0070440
2395.0	0.60530	0.0052730	0.54039	0.0061030	0.41459	0.0079280	0.51822	0.0057510
2400.0	0.60618	0.0055350	0.54164	0.0061540	0.41539	0.0082270	0.51838	0.0057690
2405.0	0.60633	0.0053790	0.54170	0.0060840	0.41535	0.0080530	0.51939	0.0063530
2410.0	0.60639	0.0055600	0.54241	0.0058390	0.41576	0.0073530	0.52008	0.0063710
2415.0	0.60634	0.0055100	0.54207	0.0059310	0.41609	0.0081030	0.52022	0.0073220
2420.0	0.60758	0.0058830	0.54331	0.0060180	0.41636	0.0079480	0.52035	0.0067560
2425.0	0.60799	0.0058880	0.54403	0.0061490	0.41692	0.0079460	0.52058	0.0069680
2430.0	0.60918	0.0053180	0.54520	0.0057260	0.41750	0.0076150	0.52065	0.0065510
2435.0	0.60859	0.0056860	0.54549	0.0059340	0.41812	0.0078470	0.52087	0.0077430
2440.0	0.60982	0.0061730	0.54641	0.0065280	0.41865	0.0077520	0.52131	0.0078230
2445.0	0.60902	0.0060190	0.54598	0.0059350	0.41806	0.0077700	0.52282	0.0067440
2450.0	0.60942	0.0057700	0.54665	0.0061300	0.41937	0.0079530	0.52419	0.0065490
2455.0	0.61015	0.0063630	0.54751	0.0066220	0.41969	0.0086400	0.52329	0.0082700
2460.0	0.61056	0.0056350	0.54787	0.0057350	0.42067	0.0085530	0.52428	0.0078640
2465.0	0.61030	0.0053460	0.54846	0.0057610	0.42162	0.0088340	0.52471	0.0062440
2470.0	0.61066	0.0059720	0.54982	0.0062710	0.42126	0.0083380	0.52680	0.0068900
2475.0	0.61087	0.0060290	0.54984	0.0057050	0.42208	0.0085420	0.52643	0.0073810
2480.0	0.61084	0.0056640	0.55055	0.0059370	0.42236	0.0089060	0.52786	0.0075070
2485.0	0.61091	0.0058080	0.55033	0.0059800	0.42333	0.0083140	0.52946	0.0065340
2490.0	0.61077	0.0056020	0.55088	0.0058270	0.42318	0.0083100	0.52974	0.0063650
2495.0	0.61028	0.0055190	0.55128	0.0059390	0.42309	0.0087160	0.53045	0.0079700
2500.0	0.61096	0.0058010	0.55260	0.0060540	0.42385	0.0094310	0.53147	0.0077420
2505.0	0.60945	0.0057840	0.55221	0.0059960	0.42483	0.0082520	0.53200	0.0067140
2510.0	0.61082	0.0057850	0.55258	0.0061110	0.42482	0.0081980	0.53248	0.0068950
2515.0	0.61047	0.0058940	0.55224	0.0061910	0.42485	0.0084030	0.53298	0.0077900
2520.0	0.61089	0.0057310	0.55275	0.0061200	0.42495	0.0083550	0.53364	0.0074490
2525.0	0.61024	0.0056840	0.55260	0.0059590	0.42566	0.0078290	0.53401	0.0066980
2530.0	0.61093	0.0055160	0.55352	0.0058180	0.42619	0.0079000	0.53328	0.0067830
2535.0	0.61026	0.0056960	0.55277	0.0059150	0.42639	0.0086010	0.53423	0.0080570
2540.0	0.61058	0.0054770	0.55459	0.0060900	0.42681	0.0085280	0.53436	0.0074320
2545.0	0.61163	0.0054930	0.55422	0.0063180	0.42696	0.0079770	0.53294	0.0071120
2550.0	0.61011	0.0055860	0.55423	0.0059960	0.42697	0.0085750	0.53416	0.0072390
2555.0	0.60974	0.0061950	0.55411	0.0066330	0.42679	0.0095460	0.53571	0.0076070
2560.0	0.61123	0.0053830	0.55545	0.0059590	0.42718	0.0088310	0.53392	0.0070480
2565.0	0.61114	0.0061120	0.55589	0.0066550	0.42766	0.0094420	0.53516	0.0079030
2570.0	0.61147	0.0060170	0.55637	0.0065680	0.42824	0.0089230	0.53611	0.0075630
2575.0	0.61169	0.0057170	0.55670	0.0064620	0.42823	0.0088250	0.53626	0.0071170
2580.0	0.61387	0.0053480	0.55859	0.0062960	0.42922	0.0098290	0.53644	0.0069550
2585.0	0.61131	0.0055890	0.55786	0.0059760	0.43016	0.0084690	0.53663	0.0072800
2590.0	0.61501	0.0060620	0.55994	0.0062790	0.42998	0.0090620	0.53864	0.0077030
2595.0	0.61622	0.0062370	0.56208	0.0064270	0.43059	0.0075920	0.54003	0.0070610
2600.0	0.61674	0.0064640	0.56347	0.0070360	0.43073	0.010210	0.54445	0.0076760
